------------------------------------------------------------------------

  Format: wavelength (microns), real and imaginary indices of refraction.
  Tables A2-A6 are in free format.

------------------------------------------------------------------------

                                   Table A2
_____________________________________________________________________________
   WAVELENGTH WATER             ICE              SODIUM CHLORIDE  SEA SALT
   microns    n     k           n     k          n      k         n      k
______________________________________________________________________________

     0.200   1.396  1.10e-7    1.394  1.50e-8    1.790  3.1e-9    1.510  1.0e-4 
     0.250   1.362  3.35e-8    1.351  8.60e-9    1.655  2.3e-9    1.510  5.0e-6 
     0.300   1.349  1.60e-8    1.334  5.50e-9    1.607  1.5e-9    1.510  2.0e-6 
     0.337   1.345  8.45e-9    1.326  4.50e-9    1.587  8.7e-10   1.510  4.0e-7 
     0.400   1.339  1.86e-9    1.320  2.71e-9    1.567  3.8e-10   1.500  3.0e-8 
     0.488   1.335  9.69e-10   1.313  1.75e-9    1.553  1.1e-10   1.500  2.0e-8 
     0.515   1.334  1.18e-9    1.312  2.19e-9    1.550  4.9e-11   1.500  1.0e-8 
     0.550   1.333  1.96e-9    1.311  3.11e-9    1.547  6.8e-11   1.500  1.0e-8 
     0.633   1.332  1.46e-8    1.308  1.09e-8    1.542  1.1e-10   1.490  2.0e-8 
     0.694   1.331  3.05e-8    1.306  2.62e-8    1.539  1.5e-10   1.490  1.0e-7 
     0.860   1.329  3.29e-7    1.303  2.15e-7    1.534  2.4e-10   1.480  3.0e-6 
     1.060   1.326  4.18e-6    1.300  1.96e-6    1.531  3.5e-10   1.470  2.0e-4 
     1.300   1.323  3.69e-5    1.295  1.32e-5    1.529  4.8e-10   1.470  4.0e-4 
     1.536   1.318  9.97e-5    1.290  6.10e-4    1.528  6.1e-10   1.460  6.0e-4 
     1.800   1.312  1.15e-4    1.282  1.13e-4    1.527  7.5e-10   1.450  8.0e-4 
     2.000   1.306  1.10e-3    1.273  1.61e-3    1.527  8.6e-10   1.450  0.0010
     2.250   1.292  3.90e-4    1.256  2.13e-4    1.526  1.0e-09   1.440  0.0020
     2.500   1.261  0.00174    1.225  7.95e-4    1.525  1.1e-9    1.430  0.0040
     2.700   1.188  0.0190     1.163  0.00293    1.525  1.2e-9    1.400  0.0070
     3.000   1.371  0.272      1.045  0.429      1.524  1.4e-9    1.610  0.0100
     3.200   1.478  0.0924     1.652  0.283      1.524  1.5e-9    1.490  0.0030
     3.392   1.422  0.0204     1.510  0.0401     1.523  1.6e-9    1.480  0.0020
     3.500   1.400  0.0094     1.453  0.0161     1.523  1.65e-9   1.480  0.0016
     3.750   1.369  0.0035     1.391  0.0070     1.522  1.8e-9    1.470  0.0014
     4.000   1.351  0.0046     1.361  0.0100     1.522  1.8e-9    1.480  0.0014
     4.500   1.332  0.0134     1.340  0.0287     1.520  1.8e-9    1.490  0.0014
     5.000   1.325  0.0124     1.327  0.0120     1.519  1.7e-9    1.470  0.0025
     5.500   1.298  0.0116     1.299  0.0217     1.517  2.6e-9    1.420  0.0036
     6.000   1.265  0.107      1.296  0.0647     1.515  4.9e-9    1.410  0.0110
     6.200   1.363  0.0880     1.313  0.0683     1.515  5.8e-9    1.600  0.022
     6.500   1.339  0.0392     1.320  0.0559     1.513  7.2e-9    1.460  0.005
     7.200   1.312  0.0321     1.318  0.0544     1.510  1.0e-8    1.420  0.007
     7.900   1.294  0.0339     1.313  0.0479     1.507  1.4e-8    1.400  0.013
     8.200   1.286  0.0351     1.306  0.0390     1.505  1.5e-8    1.420  0.020
     8.500   1.278  0.0367     1.291  0.0391     1.504  1.6e-8    1.480  0.026
     8.700   1.272  0.0379     1.282  0.0400     1.503  1.7e-8    1.600  0.030
     9.000   1.262  0.0399     1.269  0.0429     1.501  1.9e-8    1.650  0.028
     9.200   1.255  0.0415     1.261  0.0446     1.500  2.0e-8    1.610  0.026
     9.500   1.243  0.0444     1.245  0.0459     1.498  3.0e-8    1.580  0.018
     9.800   1.229  0.0479     1.219  0.0470     1.496  4.4e-8    1.560  0.016
    10.000   1.218  0.0508     1.197  0.0510     1.495  5.3e-8    1.540  0.015
    10.591   1.179  0.0674     1.098  0.131      1.491  8.0e-8    1.500  0.014
    11.000   1.153  0.0968     1.093  0.239      1.488  1.3e-7    1.480  0.014
    11.500   1.126  0.142      1.176  0.360      1.484  3.3e-7    1.480  0.014
    12.500   1.123  0.259      1.387  0.422      1.476  1.4e-6    1.420  0.016
    13.000   1.146  0.305      1.472  0.389      1.471  2.8e-6    1.410  0.018
    14.000   1.210  0.370      1.569  0.283      1.462  8.8e-6    1.410  0.023
    14.800   1.258  0.396      1.579  0.191      1.454  2.3e-5    1.430  0.030
    15.000   1.270  0.402      1.572  0.177      1.451  2.7e-5    1.450  0.035
    16.400   1.346  0.427      1.531  0.125      1.435  7.6e-5    1.560  0.090
    17.200   1.386  0.429      1.534  0.107      1.425  1.3e-4    1.740  0.120
    18.000   1.423  0.426      1.522  0.0839     1.414  2.0e-4    1.780  0.130
    18.500   1.443  0.421      1.510  0.0760     1.406  2.9e-4    1.770  0.135
    20.000   1.480  0.393      1.504  0.0670     1.382  6.2e-4    1.760  0.152
    21.300   1.491  0.379      1.481  0.0385     1.360  9.9e-4    1.760  0.165
    22.500   1.506  0.370      1.455  0.0291     1.330  0.0014    1.760  0.180
    25.000   1.531  0.356      1.414  0.0299     1.270  0.0035    1.760  0.205
    27.900   1.549  0.339      1.358  0.0490     1.170  0.0100    1.770  0.275
    30.000   1.551  0.328      1.325  0.0650     1.080  0.026     1.770  0.300
    35.000   1.532  0.336      1.226  0.155      0.780  0.140     1.760  0.500
    40.000   1.519  0.385      1.202  0.344      0.580  0.660     1.740  1.00
    45.000   1.536  0.449      1.299  0.601      0.270  1.08      0.000  0.00
    50.000   1.587  0.514      1.629  0.543      0.140  1.99      0.000  0.00 
    55.000   1.645  0.551      1.767  0.420      0.310  3.46      0.000  0.00
    60.000   1.703  0.587      1.585  0.390      4.520  6.94      0.000  0.00
    65.000   1.762  0.582      1.748  0.490      5.280  0.761     0.000  0.00
    70.000   1.821  0.576      1.869  0.399      3.920  0.271     0.000  0.00
    80.000   1.920  0.520      1.903  0.235      3.170  0.123     0.000  0.00
    90.000   1.979  0.490      1.856  0.165      2.870  0.0968    0.000  0.00
   100.000   2.037  0.460      1.832  0.139      2.740  0.0870    0.000  0.00
   110.000   2.060  0.440      1.821  0.126      2.640  0.0790    0.000  0.00
   120.000   2.082  0.420      1.819  0.120      2.590  0.0770    0.000  0.00
   135.000   2.094  0.410      1.819  0.108      2.540  0.0720    0.000  0.00
   150.000   2.106  0.400      1.823  0.0962     2.500  0.0640    0.000  0.00
   165.000   2.109  0.410      1.829  0.0846     2.480  0.0560    0.000  0.00
   180.000   2.113  0.420      1.832  0.0650     2.470  0.0520    0.000  0.00
   200.000   2.117  0.430      1.827  0.0452     2.450  0.0470    0.000  0.00
   250.000   2.120  0.460      1.807  0.0222     2.440  0.0410    0.000  0.00
   300.000   2.121  0.490      1.795  0.0153     2.430  0.0300    0.000  0.00
   400.000   2.142  0.530      1.786  0.0125     2.430  0.0270    0.000  0.00
   500.000   2.177  0.580      1.783  0.0106     2.430  0.0240    0.000  0.00
   750.000   2.291  0.650      1.782  0.0080     2.430  0.0120    0.000  0.00
  1000.000   2.437  0.730      1.781  0.0065     2.430  0.0080    0.000  0.00
  1500.000   2.562  0.960      1.782  0.0049     2.430  0.0061    0.000  0.00
  2000.000   2.705  1.19       1.782  0.0040     2.430  0.0047    0.000  0.00
  3000.000   3.013  1.59       1.782  0.0030     2.430  0.0029    0.000  0.00
  5000.000   3.627  2.14       1.783  0.0021     2.430  0.0024    0.000  0.00
 10000.000   4.954  2.79       1.784  0.0013     2.430  5.6e-4    0.000  0.00
 20000.000   6.728  2.87       1.784  7.9e-4     2.430  4.1e-4    0.000  0.00
 30000.000   7.682  2.51       1.784  5.9e-4     2.430  2.6e-4    0.000  0.00
